Jaz Data File
++++++++++++++++++++++++++++++++++++
Date: Mon Sep 17 14:58:29 2018
User: jaz
Dark Spectrum Present: Yes
Reference Spectrum Present: Yes
Processed Spectrum Present: Yes
Spectrometers: JAZA3098
Integration Time (usec): 232000 (JAZA3098)
Spectra Averaged: 20 (JAZA3098)
Boxcar Smoothing: 0 (JAZA3098)
Correct for Electrical Dark: No (JAZA3098)
Strobe/Lamp Enabled: Yes (JAZA3098)
Correct for Detector Non-linearity: No (JAZA3098)
Correct for Stray Light: No (JAZA3098)
Number of Pixels in Processed Spectrum: 2048
>>>>>Begin Processed Spectral Data<<<<<
W	D	R	S	P
190.313904	0.000000	0.000000	0.000000	0.000000
190.695511	0.000000	0.000000	0.000000	0.000000
191.077087	931.613953	922.574585	909.919617	239.998383
191.458633	937.941528	933.760742	928.450195	227.022690
191.840149	949.692566	965.172241	943.365051	-40.876274
192.221634	959.183777	945.285950	949.353638	70.731483
192.603088	975.228638	984.154968	980.539246	59.493740
192.984528	1000.425598	1008.448059	1002.233521	22.535757
193.365921	995.792969	1019.521179	991.160461	-19.523205
193.747284	988.222656	987.544617	999.747742	-1699.765991
194.128616	988.109558	1000.086731	991.838257	31.131710
194.509918	992.629272	1016.244507	1014.549683	92.823174
194.891190	997.487976	1004.154480	1002.911499	81.354828
195.272446	994.663208	1002.572571	1007.318176	159.999847
195.653656	1029.125610	1043.475464	1034.210205	35.433079
196.034836	1014.323608	1014.436646	997.939819	-14494.168945
196.416000	979.070435	991.838257	981.782104	21.238312
196.797104	1010.707825	1010.255859	1012.515808	-400.027008
197.178192	1007.431152	1025.509766	995.115051	-68.125252
197.559265	985.623718	1003.137512	1000.425659	84.515900
197.940292	971.161011	990.256470	972.742981	8.284536
198.321304	975.906433	979.409363	969.804993	-174.181076
198.702271	979.748352	985.736816	978.053406	-28.303522
199.083221	983.477051	978.279419	971.499878	230.435196
199.464111	971.951965	967.997192	967.997192	100.000000
199.844986	977.714478	977.714478	983.250977	0.000000
200.225830	960.991821	986.188782	974.098633	52.017429
200.606659	962.912476	1007.318054	976.584473	30.788918
200.987427	1012.063843	1080.988525	1026.526611	20.983438
201.368195	960.087708	998.956909	982.008179	56.395477
201.748917	984.832825	993.759277	987.657593	31.644913
202.129608	964.268372	989.239563	961.443542	-11.312352
202.510284	976.019531	998.617859	961.330688	-64.999687
202.890915	953.195190	1000.199829	952.178345	-2.163288
203.271515	972.064819	995.341003	971.160828	-3.883762
203.652100	970.596008	999.069702	984.380981	48.413013
204.032623	969.692078	979.183289	974.776672	53.571613
204.413147	961.895691	988.109680	955.794067	-23.276211
204.793625	970.708984	1001.216614	964.607544	-19.999720
205.174088	956.811035	986.075806	942.913086	-47.490376
205.554504	950.483398	972.403809	973.646667	105.669868
205.934906	949.918457	974.550476	952.178345	9.174594
206.315247	957.375854	973.759766	953.873169	-21.378813
206.695587	958.844849	992.629211	952.517273	-18.729303
207.075882	972.742859	986.527710	988.222778	112.296600
207.456146	939.975281	971.725891	954.777161	46.619198
207.836380	965.737427	997.375000	974.776733	28.571428
208.216599	961.104614	995.679993	969.353027	23.856321
208.596771	952.291504	966.980164	955.342102	20.768391
208.976913	973.420715	1000.086731	984.380981	41.102001
209.357025	1026.300659	1039.746704	1016.357544	-73.948250
209.737106	963.703430	981.443054	962.008667	-9.553546
210.117157	967.319214	987.883606	965.511353	-8.791222
210.497177	971.499817	966.415344	954.664185	331.118561
210.877167	968.336121	984.606934	966.189148	-13.195239
211.257126	967.771301	988.335632	950.596558	-83.517151
211.637070	992.629272	1016.922546	969.578979	-94.883438
212.016968	964.607422	1000.538757	969.014160	12.264332
212.396835	965.285278	984.606934	966.867371	8.188182
212.776672	959.409973	976.923645	954.325195	-29.033192
213.156464	962.799500	985.510925	947.319702	-68.158630
213.536255	945.850891	981.104187	956.359070	29.807650
213.916000	962.912598	983.929016	961.217773	-8.064286
214.295700	956.924011	980.426270	958.844849	8.172991
214.675400	965.172363	979.635254	974.663696	65.625420
215.055038	945.624878	979.522339	948.788574	9.333137
215.434662	975.002625	982.347046	964.042480	-149.230865
215.814240	992.742310	1020.086121	1005.849121	47.933376
216.193787	960.878723	1002.233582	959.748840	-2.732165
216.573334	980.087280	994.437134	975.002563	-35.433929
216.952820	965.963257	995.002075	950.144531	-54.474411
217.332275	953.421204	976.810547	963.703430	43.961159
217.711716	967.771179	1001.216675	970.144043	7.094718
218.091125	952.404297	988.335632	947.432800	-13.836103
218.470505	1018.165344	1050.367798	993.533203	-76.491501
218.849854	958.166992	996.018921	963.364563	13.731323
219.229156	970.595886	985.397827	964.494446	-41.220543
219.608444	959.522827	982.460144	950.257446	-40.394352
219.987671	998.391968	1023.023926	1007.996094	38.990509
220.366898	963.364624	1008.109009	984.493958	47.222313
220.746094	990.143433	1010.481934	990.934448	3.889252
221.125244	981.330200	1009.351868	993.420288	43.145496
221.504364	961.104797	998.165894	978.053345	45.731369
221.883469	944.269043	1004.719360	957.263000	21.495268
222.262512	948.675781	997.261902	965.172363	33.953281
222.641556	954.551147	973.872864	946.980774	-39.180649
223.020554	940.992065	996.019043	955.342102	26.078184
223.399521	958.618774	997.600891	976.697449	46.376842
223.778473	965.850403	982.799133	950.483521	-90.666862
224.157364	953.421265	986.075806	951.726440	-5.190164
224.536240	967.093140	967.545105	964.268433	-624.983093
224.915085	951.387390	984.154968	948.788574	-7.931059
225.293900	971.499817	983.250977	960.652710	-92.306694
225.672684	970.595886	997.148926	968.562195	-7.658978
226.051437	970.369995	1005.962219	970.483093	0.317761
226.430161	938.506470	990.256470	946.867798	16.157156
226.808838	944.268921	997.600891	960.539673	30.508440
227.187500	980.765137	1048.786011	990.821472	14.784190
227.566132	962.234680	1010.142883	953.986206	-17.217247
227.944717	969.240112	1019.521301	970.257141	2.022682
228.323288	978.731262	1031.837280	986.753784	15.106615
228.701813	951.839478	1022.458984	975.906616	34.080017
229.080307	953.986206	1021.894165	964.833374	15.973338
229.458786	972.855835	1043.814331	980.652161	10.987164
229.837234	957.489075	1041.893555	987.092773	35.073612
230.215637	945.285950	1037.938721	979.974243	37.439026
230.594009	949.692566	1062.344849	992.064331	37.612877
230.972351	942.009155	1049.915894	991.951355	46.282745
231.350662	969.014038	1039.972778	987.544617	26.114582
231.728958	938.054504	1049.125000	984.041870	41.403763
232.107193	966.641235	1053.644775	991.160461	28.181871
232.485413	952.065308	1036.469971	979.974243	33.065632
232.863602	1060.424072	1156.127808	1086.977295	27.745232
233.241760	957.828003	1050.706787	989.013489	33.576546
233.619873	942.913208	1041.667603	979.070313	36.613159
233.997986	988.674683	1057.260376	1010.482056	31.795805
234.376038	968.223267	1055.113525	986.979675	21.586319
234.754074	966.641235	1070.254517	981.895020	14.721843
235.132065	958.844849	1044.605225	988.335571	34.387352
235.510025	969.579102	1050.819824	985.058899	19.054234
235.887970	963.364563	1051.610962	982.912109	22.151098
236.265869	971.499817	1051.045898	990.030579	23.295631
236.643738	967.093262	1058.842285	997.713989	33.374447
237.021576	950.483582	1064.491821	969.013977	16.253557
237.399384	941.896118	1054.322510	970.144043	25.125706
237.777161	969.918091	1086.637939	1017.826477	41.045620
238.154892	954.890259	1066.525635	992.968262	34.109261
238.532623	956.923950	1080.875610	975.906616	15.314571
238.910309	940.879211	1060.989136	996.922974	46.660393
239.287949	951.839355	1070.141479	988.787598	31.232103
239.665573	947.319702	1071.384277	1002.346558	44.353397
240.043167	960.313660	1081.101563	1000.764648	33.489273
240.420715	955.003113	1090.705811	1007.092285	38.384773
240.798233	965.172363	1088.671875	989.013672	19.304779
241.175735	966.528320	1097.033447	995.793091	22.424231
241.553207	944.381958	1097.937256	995.906128	33.554146
241.930634	944.720825	1092.513672	994.098145	33.409817
242.308014	963.364563	1141.777832	1008.900085	25.522497
242.685394	951.726379	1151.269165	1011.159851	29.784826
243.062729	969.014160	1189.234375	1017.713379	22.113873
243.440033	970.031067	1200.985596	1011.724915	18.052837
243.817307	977.036499	1228.894287	1038.164795	24.270958
244.194534	971.161011	1214.318359	1035.566162	26.487026
244.571747	982.346985	1238.046509	1045.057373	24.525032
244.948929	960.652710	1230.137085	1030.820435	26.037771
245.326065	965.172485	1192.398071	1025.283813	26.454472
245.703186	979.974426	1227.312256	1031.611328	20.877073
246.080261	950.370605	1193.075928	1029.125488	32.448765
246.457306	947.319702	1208.216797	1031.046265	32.091797
246.834320	969.466125	1234.543701	1027.091553	21.739080
247.211304	968.901184	1268.780151	1025.396729	18.839449
247.588257	972.064758	1307.197388	1058.164185	25.691151
247.965195	971.612976	1356.235596	1086.751099	29.935349
248.342087	945.850891	1386.743164	1084.265259	31.394146
248.718933	950.935547	1401.771240	1078.389771	28.270660
249.095764	939.297241	1419.171631	1069.011475	27.030872
249.472549	955.794067	1411.262451	1086.638062	28.727350
249.849319	951.839478	1370.020508	1068.559570	27.911379
250.226044	970.144043	1356.009521	1067.881592	25.329435
250.602737	954.212219	1328.439697	1050.932861	25.845415
250.979401	965.285339	1295.785034	1049.689941	25.538481
251.356033	979.409302	1306.519287	1055.000610	23.108835
251.732635	971.612976	1286.180908	1042.458496	22.521532
252.109207	967.658203	1280.757202	1033.532227	21.039360
252.485748	971.048035	1292.960327	1051.723633	25.061359
252.862244	949.127625	1293.751343	1052.740723	30.065575
253.238724	962.347534	1301.660767	1029.803467	19.880136
253.615158	942.800110	1297.932129	1025.170654	23.194345
253.991577	962.573608	1315.897705	1029.916382	19.059774
254.367950	955.455078	1317.705566	1028.221680	20.087372
254.744308	986.979797	1334.880127	1070.367310	23.968794
255.120621	956.359009	1302.338623	1046.187012	25.963381
255.496902	958.505981	1272.395874	1032.063232	23.434093
255.873154	953.195190	1272.734863	1015.453491	19.483747
256.249390	946.867859	1259.514893	1005.962280	18.901321
256.625549	956.697937	1287.762695	1031.385376	22.559767
257.001709	992.403198	1324.598022	1029.351440	11.122461
257.377838	957.149902	1332.959229	1047.317139	23.992815
257.753937	955.568176	1321.095337	1033.984131	21.452839
258.129974	949.353699	1330.134399	1032.967163	21.958429
258.506012	941.895996	1374.766113	1049.803101	24.928288
258.881989	968.223145	1401.657959	1040.763672	16.736202
259.257935	962.799622	1420.527588	1064.039795	22.117979
259.633911	948.788696	1483.237915	1056.808350	20.211397
260.009766	960.087708	1530.016357	1062.796875	18.021408
260.385651	1006.188293	1620.296265	1134.998413	20.975159
260.761475	950.144409	1634.759521	1101.327026	22.082863
261.137299	962.121582	1704.135986	1108.897583	19.780748
261.513062	939.862305	1729.333008	1103.360840	20.709892
261.888763	995.454102	1758.823975	1149.574341	20.189459
262.264496	957.941040	1707.186768	1088.333008	17.403097
262.640137	962.912476	1668.091797	1076.130127	16.055157
263.015808	950.596558	1592.500488	1062.119141	17.373718
263.391388	988.335632	1595.438232	1099.406128	18.295177
263.766998	993.307251	1572.161987	1105.620605	19.402683
264.142517	977.940430	1549.789917	1096.355225	20.707336
264.518036	954.890137	1505.610229	1040.537598	15.551904
264.893524	971.612915	1499.169678	1067.881470	18.247999
265.268951	983.815918	1536.004883	1072.401123	16.042553
265.644379	947.093628	1469.566040	1051.384888	19.961103
266.019745	958.957886	1465.837280	1045.848267	17.142220
266.395111	971.047852	1485.158813	1066.525635	18.571436
266.770386	977.714355	1519.734131	1083.813232	19.574724
267.145691	963.816589	1529.790161	1069.689453	18.706326
267.520966	970.369995	1560.975830	1068.559448	16.625208
267.896149	978.505371	1593.404541	1071.158447	15.068011
268.271362	969.917969	1588.432861	1082.005615	18.122061
268.646515	943.139038	1600.974854	1065.621826	18.619051
269.021606	974.889771	1641.313110	1103.586792	19.311602
269.396729	959.296875	1639.730835	1068.446533	16.041183
269.771790	940.088196	1627.188965	1071.610352	19.141611
270.146790	941.218262	1647.188477	1068.898560	18.085791
270.521790	962.799622	1651.369141	1073.983154	16.147032
270.896759	965.624390	1659.730225	1087.428955	17.548414
271.271667	974.776550	1703.457764	1083.700195	14.948051
271.646545	948.449585	1716.225952	1076.694824	16.703463
272.021423	952.178528	1781.422119	1082.570435	15.724198
272.396271	940.653198	1819.726196	1093.982422	17.442150
272.771027	959.974792	1864.244751	1093.078735	14.719492
273.145813	963.025757	1906.390625	1120.874512	16.732525
273.520538	980.539185	1935.881226	1139.856934	16.676514
273.895233	978.279175	1930.683838	1114.546997	14.307765
274.269897	959.296875	1881.080322	1106.072632	15.923019
274.644501	966.302368	1844.810181	1088.559082	13.916406
275.019135	987.657593	1842.324219	1119.292603	15.401913
275.393677	949.692383	1814.867554	1083.926147	15.515212
275.768250	948.110535	1814.076416	1083.361328	15.618490
276.142700	932.630859	1816.336304	1107.089478	19.741716
276.517212	955.907043	1854.640625	1098.502075	15.866219
276.891632	962.686523	1859.273193	1109.010376	16.320101
277.266022	954.099304	1873.623047	1091.044800	14.893089
277.640381	954.890137	1922.548218	1114.998779	16.545994
278.014740	981.443176	1929.779541	1123.812256	15.012508
278.389038	955.794128	1957.349609	1106.863647	15.083489
278.763336	954.890259	1966.727905	1103.021851	14.639857
279.137543	944.608032	1958.140625	1117.936768	17.101446
279.511780	949.918579	1956.219482	1118.275635	16.730289
279.885925	954.325195	1977.236328	1125.055176	16.690598
280.260101	956.020020	1952.491455	1115.111938	15.965528
280.634186	966.415161	1990.230469	1117.823853	14.788672
281.008301	985.171875	2048.533691	1151.043213	15.598767
281.382294	956.132935	2043.901001	1112.400146	14.365858
281.756348	970.144043	2131.017334	1126.750000	13.490357
282.130280	943.591125	2177.682861	1139.291992	15.857885
282.504272	971.386902	2266.381348	1169.347900	15.286630
282.878143	955.681152	2271.013916	1154.658936	15.127563
283.252014	970.708862	2323.780762	1191.042114	16.283928
283.625854	1001.555542	2400.162598	1220.645874	15.664895
283.999664	968.675171	2376.095947	1173.754517	14.571289
284.373444	962.121460	2407.733643	1188.330322	15.647964
284.747192	963.929565	2369.429199	1175.901367	15.081597
285.120941	983.476929	2396.885986	1205.730835	15.724669
285.494629	936.472534	2404.569580	1163.472290	15.462176
285.868256	956.811035	2435.642334	1169.912720	14.410142
286.241882	982.234070	2489.990967	1192.624146	13.953847
286.615448	966.867188	2542.645020	1218.724976	15.983077
286.988983	938.958374	2560.158691	1176.579346	14.657102
287.362518	985.171997	2609.875000	1223.809570	14.688073
287.736023	962.686646	2639.930664	1207.764893	14.611961
288.109467	959.070923	2646.145020	1193.979858	13.924044
288.482880	973.985718	2634.394043	1218.499023	14.726095
288.856262	979.748230	2638.461426	1227.877197	14.959125
289.229584	976.923340	2594.508301	1197.708740	13.649076
289.602936	966.302429	2591.457275	1189.573242	13.738434
289.976227	991.612183	2607.163086	1227.425415	14.596459
290.349457	958.618958	2641.625488	1201.889282	14.454508
290.722687	958.279968	2656.427490	1205.843994	14.578476
291.095886	949.579590	2738.120117	1217.143188	14.959885
291.469025	979.635132	2819.812744	1235.447876	13.901525
291.842133	954.438171	2826.140381	1250.701660	15.828560
292.215240	969.805054	2885.460693	1247.876831	14.515750
292.588287	952.743286	2847.043457	1228.103271	14.536239
292.961304	944.608032	2851.111572	1237.594482	15.367737
293.334320	964.607544	2858.003662	1254.882324	15.330906
293.707245	955.455078	2837.100586	1227.199463	14.441848
294.080170	968.110168	2845.235840	1231.605957	14.037194
294.453064	940.540344	2910.318848	1253.978271	15.912343
294.825897	965.963257	2972.690186	1260.984009	14.701590
295.198730	935.229675	3035.513428	1253.752319	15.165696
295.571533	950.596375	3084.099854	1265.277344	14.749495
295.944275	957.150024	3153.476318	1288.440674	15.083855
296.317017	985.171753	3263.416992	1314.654663	14.462136
296.689697	965.285339	3318.444092	1300.756714	14.256215
297.062317	957.827942	3324.093262	1310.587036	14.907842
297.434967	977.375488	3395.843262	1332.846313	14.698183
297.807526	958.279785	3477.196533	1332.846191	14.870138
298.180115	946.189819	3553.014160	1333.863281	14.871485
298.552612	969.805054	3544.087402	1331.716309	14.058724
298.925110	951.952332	3584.990234	1339.851807	14.732013
299.297546	987.205566	3542.393066	1354.540649	14.376052
299.669983	953.421265	3482.281738	1331.490601	14.950187
300.042358	981.217163	3408.949951	1348.100098	15.112163
300.414734	960.991699	3351.211426	1324.597900	15.212250
300.787048	943.139038	3292.794434	1312.055786	15.700889
301.159332	954.776978	3256.863770	1316.123535	15.696478
301.531616	935.455750	3216.525879	1290.135498	15.548832
301.903809	964.268372	3213.474609	1308.327271	15.296903
302.276031	961.556641	3203.757568	1286.745850	14.503125
302.648163	948.675659	3195.961426	1289.683716	15.174219
303.020294	941.218140	3193.475098	1306.971313	16.239408
303.392395	958.618835	3203.418701	1316.688721	15.951083
303.764435	947.658691	3132.233887	1297.367065	16.008072
304.136444	948.336548	3137.092773	1296.237061	15.894895
304.508453	962.121704	3169.859863	1318.722412	16.152309
304.880371	995.228149	3147.035645	1290.135620	13.705104
305.252319	970.257019	3102.856445	1288.440674	14.919992
305.624207	987.431641	3121.161133	1310.473999	15.139799
305.996033	990.595398	3127.488525	1307.649170	14.837138
306.367859	960.878723	3114.494629	1295.107178	15.519408
306.739655	948.901672	3090.539795	1288.779785	15.870007
307.111389	949.240601	3152.572021	1297.141113	15.789748
307.483124	965.172363	3168.504395	1288.892578	14.692303
307.854828	972.177734	3201.271729	1308.553101	15.090228
308.226471	952.291321	3211.327637	1290.361572	14.965241
308.598083	964.833496	3287.145264	1299.626953	14.416388
308.969666	968.788208	3297.766357	1312.507935	14.758393
309.341187	975.115723	3373.583496	1333.637451	14.947948
309.712738	960.426636	3454.485596	1324.823975	14.610614
310.084167	963.364563	3470.869141	1349.569092	15.401947
310.455658	949.692383	3522.393311	1350.811890	15.591377
310.827057	970.257019	3602.842529	1366.291748	15.043566
311.198456	971.951782	3592.673828	1360.416260	14.822803
311.569794	960.991699	3566.233887	1352.054932	15.010629
311.941132	958.166870	3599.566406	1361.094116	15.254310
312.312408	948.336548	3599.792236	1352.506836	15.243337
312.683655	962.234558	3590.865967	1365.613770	15.345598
313.054840	969.805054	3567.250732	1357.139526	14.912129
313.426056	969.127136	3574.595215	1372.280396	15.473352
313.797180	986.075867	3601.374268	1360.077271	14.300526
314.168304	967.206177	3578.210938	1345.162354	14.475507
314.539368	930.709961	3542.618652	1320.643188	14.929052
314.910431	943.477905	3573.126465	1326.179688	14.553344
315.281433	951.274536	3629.283203	1349.456055	14.868567
315.652435	958.392761	3729.732422	1362.789185	14.592092
316.023346	959.748840	3740.805908	1364.822876	14.565470
316.394287	949.805481	3747.132813	1353.523682	14.432282
316.765137	976.019531	3750.071045	1376.912964	14.451550
317.135986	980.539246	3708.489746	1381.206665	14.687489
317.506775	959.522949	3634.593262	1357.591553	14.880678
317.877594	990.821472	3617.871094	1380.415771	14.830109
318.248291	973.759766	3555.499512	1345.727295	14.407631
318.619019	988.900513	3542.166748	1367.873535	14.842676
318.989655	977.488403	3600.244629	1357.478394	14.488193
319.360321	966.302368	3605.441895	1358.382202	14.856350
319.730896	965.172485	3634.367676	1359.512329	14.773735
320.101501	949.127625	3658.209473	1361.998291	15.240244
320.472015	955.455200	3685.213623	1350.698975	14.479075
320.842529	965.963379	3713.349121	1360.868164	14.373838
321.213013	969.917847	3683.744629	1361.772217	14.439182
