Jaz Data File
++++++++++++++++++++++++++++++++++++
Date: Mon Apr 25 12:49:11 2016
User: jaz
Dark Spectrum Present: Yes
Reference Spectrum Present: Yes
Processed Spectrum Present: Yes
Spectrometers: JAZA3098
Integration Time (usec): 748000 (JAZA3098)
Spectra Averaged: 1 (JAZA3098)
Boxcar Smoothing: 0 (JAZA3098)
Correct for Electrical Dark: No (JAZA3098)
Strobe/Lamp Enabled: Yes (JAZA3098)
Correct for Detector Non-linearity: No (JAZA3098)
Correct for Stray Light: No (JAZA3098)
Number of Pixels in Processed Spectrum: 2048
>>>>>Begin Processed Spectral Data<<<<<
W	D	R	S	P
190.313904	0.000000	0.000000	0.000000	0.000000
190.695511	0.000000	0.000000	0.000000	0.000000
191.077087	1138.953125	1123.134277	1102.795898	228.570541
191.458633	1184.149658	1227.086426	1059.859131	-289.473419
191.840149	1175.110352	1193.188965	1132.173584	-237.500336
192.221634	1213.527466	1215.787231	1093.756592	-5300.145996
192.603088	1206.747925	1308.440186	1179.630005	-26.666651
192.984528	1292.621338	1260.983765	1258.723999	107.142662
193.365921	1294.881226	1362.676025	1236.125732	-86.666664
193.747284	1206.747925	1288.101685	1242.905151	44.444443
194.128616	1242.905151	1224.826538	1238.385498	25.000000
194.509918	1303.920532	1306.180420	1215.787231	-3899.897461
194.891190	1256.464111	1281.322266	1274.542725	72.727097
195.272446	1204.488159	1281.322266	1193.188965	-14.705962
195.653656	1419.171753	1367.195679	1392.053833	52.173851
196.034836	1254.204346	1274.542725	1204.488159	-244.445175
196.416000	1195.448853	1251.944458	1190.929199	-8.000009
196.797104	1290.361572	1312.959839	1312.959839	100.000000
197.178192	1315.219727	1303.920532	1249.684692	579.997437
197.559265	1328.778687	1227.086426	1245.165039	82.222237
197.940292	1251.944458	1233.865845	1213.527466	212.499664
198.321304	1288.101685	1236.125732	1222.566772	126.086990
198.702271	1337.817993	1220.306885	1254.204346	71.153824
199.083221	1175.110352	1308.440186	1177.370239	1.694960
199.464111	1220.306885	1308.440186	1188.669312	-35.897411
199.844986	1292.621338	1236.125732	1236.125732	100.000000
200.225830	1245.165039	1303.920532	1145.732544	-169.230972
200.606659	1222.566772	1267.763306	1251.944458	64.999863
200.987427	1389.793945	1385.274292	1353.636719	800.000000
201.368195	1290.361572	1373.975220	1236.125732	-64.864815
201.748917	1303.920532	1349.117065	1215.787231	-195.000137
202.129608	1288.101685	1274.542725	1193.188965	700.000000
202.510284	1290.361572	1238.385498	1258.723999	60.869495
202.890915	1175.110352	1218.047119	1186.409546	26.315895
203.271515	1242.905151	1249.684692	1222.566772	-299.996399
203.652100	1274.542725	1317.479492	1181.889893	-215.789032
204.032623	1251.944458	1312.959839	1172.850586	-129.629395
204.413147	1317.479492	1206.747925	1157.031738	144.897934
204.793625	1340.077759	1367.195679	1197.708618	-525.000244
205.174088	1258.723999	1274.542725	1202.228271	-357.144623
205.554504	1215.787231	1297.140991	1080.197632	-166.666672
205.934906	1181.889893	1267.763306	1177.370239	-5.263158
206.315247	1193.188965	1213.527466	1199.968506	33.333534
206.695587	1215.787231	1249.684692	1224.826538	26.666618
207.075882	1283.582031	1380.754639	1297.140991	13.953480
207.456146	1254.204346	1317.479492	1197.708618	-89.285812
207.836380	1353.636719	1290.361572	1254.204346	157.142853
208.216599	1242.905151	1236.125732	1218.047119	366.669067
208.596771	1224.826538	1283.582031	1190.929199	-57.692204
208.976913	1303.920532	1373.975220	1251.944458	-74.193573
209.357025	1383.014526	1498.265747	1403.352905	17.646997
209.737106	1256.464111	1299.400879	1163.811279	-215.789032
210.117157	1204.488159	1283.582031	1179.630005	-31.428673
210.497177	1202.228271	1335.558105	1222.566772	15.254276
210.877167	1258.723999	1242.905151	1172.850586	542.855042
211.257126	1238.385498	1227.086426	1215.787231	200.001083
211.637070	1238.385498	1360.416260	1249.684692	9.259300
212.016968	1227.086426	1267.763306	1134.433472	-227.777924
212.396835	1312.959839	1294.881226	1222.566772	500.000000
212.776672	1186.409546	1238.385498	1138.953125	-91.304573
213.156464	1218.047119	1265.503418	1163.811279	-114.285858
213.536255	1231.606079	1231.606079	1209.007813	0.000000
213.916000	1170.590698	1349.117065	1172.850586	1.265857
214.295700	1233.865845	1258.723999	1245.165039	45.454678
214.675400	1258.723999	1321.999146	1188.669312	-110.714386
215.055038	1209.007813	1224.826538	1204.488159	-28.571539
215.434662	1267.763306	1319.739380	1240.645386	-52.173851
215.814240	1317.479492	1288.101685	1344.597412	-92.307503
216.193787	1265.503418	1285.841919	1229.346191	-177.777237
216.573334	1297.140991	1319.739380	1229.346191	-299.998383
216.952820	1249.684692	1272.282959	1224.826538	-110.000267
217.332275	1260.983765	1188.669312	1197.708618	87.500000
217.711716	1378.494873	1387.534180	1258.723999	-1325.000732
218.091125	1285.841919	1233.865845	1168.330933	226.086685
218.470505	1432.730713	1430.470825	1412.392212	899.978394
218.849854	1312.959839	1301.660645	1186.409546	1119.993896
219.229156	1297.140991	1288.101685	1199.968506	1074.999268
219.608444	1233.865845	1297.140991	1186.409546	-74.999901
219.987671	1333.298340	1369.455566	1283.582031	-137.500336
220.366898	1272.282959	1218.047119	1163.811279	200.000000
220.746094	1342.337646	1353.636719	1310.700073	-280.001526
221.125244	1344.597412	1394.313599	1256.464111	-177.272858
221.504364	1331.038452	1303.920532	1181.889893	550.000000
221.883469	1229.346191	1283.582031	1218.047119	-20.833221
222.262512	1283.582031	1297.140991	1233.865845	-366.666656
222.641556	1177.370239	1209.007813	1186.409546	28.571428
223.020554	1227.086426	1270.023071	1283.582031	131.578995
223.399521	1238.385498	1258.723999	1190.929199	-233.332336
223.778473	1220.306885	1270.023071	1136.693237	-168.181946
224.157364	1168.330933	1265.503418	1233.865845	67.441841
224.536240	1310.700073	1211.267578	1238.385498	72.727303
224.915085	1084.717285	1231.606079	1211.267578	86.153809
225.293900	1215.787231	1344.597412	1199.968506	-12.280648
225.672684	1267.763306	1315.219727	1215.787231	-109.523796
226.051437	1258.723999	1267.763306	1159.291626	-1100.000000
226.430161	1175.110352	1319.739380	1211.267578	24.999979
226.808838	1233.865845	1317.479492	1224.826538	-10.810802
227.187500	1353.636719	1342.337646	1303.920532	440.002380
227.566132	1213.527466	1324.259033	1211.267578	-2.040870
227.944717	1265.503418	1294.881226	1213.527466	-176.922501
228.323288	1355.896606	1335.558105	1294.881226	299.999390
228.701813	1251.944458	1297.140991	1209.007813	-94.999863
229.080307	1229.346191	1333.298340	1211.267578	-17.391283
229.458786	1265.503418	1288.101685	1218.047119	-209.999725
229.837234	1238.385498	1326.518799	1206.747925	-35.897411
230.215637	1159.291626	1297.140991	1197.708618	27.868820
230.594009	1236.125732	1398.833252	1281.322266	27.777779
230.972351	1231.606079	1394.313599	1213.527466	-11.111111
231.350662	1265.503418	1484.706787	1290.361572	11.340224
231.728958	1188.669312	1410.132446	1213.527466	11.224511
232.107193	1242.905151	1387.534180	1195.448853	-32.812431
232.485413	1197.708618	1326.518799	1152.512085	-35.087704
232.863602	1204.488159	1367.195679	1179.630005	-15.277815
233.241760	1233.865845	1401.093140	1188.669312	-27.027008
233.619873	1163.811279	1249.684692	1184.149658	23.684139
233.997986	1331.038452	1416.911865	1251.944458	-92.105331
234.376038	1346.857300	1441.770020	1297.140991	-52.381081
234.754074	1242.905151	1453.069214	1204.488159	-18.279526
235.132065	1321.999146	1349.117065	1163.811279	-583.333313
235.510025	1231.606079	1410.132446	1258.723999	15.189868
235.887970	1249.684692	1378.494873	1161.551392	-68.421066
236.265869	1260.983765	1439.510132	1213.527466	-26.582235
236.643738	1245.165039	1432.730713	1188.669312	-30.120504
237.021576	1229.346191	1373.975220	1111.835205	-81.249931
237.399384	1233.865845	1315.219727	1134.433472	-122.222038
237.777161	1265.503418	1419.171753	1186.409546	-51.470509
238.154892	1301.660645	1299.400879	1186.409546	5100.135254
238.532623	1220.306885	1385.274292	1229.346191	5.479450
238.910309	1279.062378	1389.793945	1224.826538	-48.979565
239.287949	1197.708618	1401.093140	1247.424805	24.444429
239.665573	1215.787231	1401.093140	1238.385498	12.195114
240.043167	1251.944458	1441.770020	1224.826538	-14.285706
240.420715	1290.361572	1498.265747	1260.983765	-14.130456
240.798233	1242.905151	1550.241699	1267.763306	8.088252
241.175735	1312.959839	1527.643433	1258.723999	-25.263151
241.553207	1184.149658	1405.612793	1181.889893	-1.020380
241.930634	1222.566772	1493.746094	1186.409546	-13.333327
242.308014	1245.165039	1498.265747	1206.747925	-15.178588
242.685394	1172.850586	1527.643433	1224.826538	14.649662
243.062729	1272.282959	1622.556274	1202.228271	-20.000008
243.440033	1168.330933	1606.737427	1184.149658	3.608232
243.817307	1301.660645	1712.949341	1247.424805	-13.186806
244.194534	1163.811279	1746.846802	1220.306885	9.689908
244.571747	1220.306885	1742.327148	1263.243652	8.225115
244.948929	1249.684692	1807.862061	1238.385498	-2.024302
245.326065	1188.669312	1733.287720	1166.071045	-4.149376
245.703186	1301.660645	1642.894653	1204.488159	-28.476788
246.080261	1168.330933	1615.776733	1224.826538	12.626245
246.457306	1206.747925	1660.973267	1181.889893	-5.472621
246.834320	1301.660645	1595.438354	1251.944458	-16.923063
247.211304	1258.723999	1719.728760	1279.062378	4.411750
247.588257	1272.282959	1819.161255	1292.621338	3.718995
247.965195	1279.062378	1918.593628	1319.739380	6.360440
248.342087	1199.968506	2018.026001	1360.416260	19.613262
248.718933	1220.306885	1975.089355	1242.905151	2.994010
249.095764	1195.448853	1977.349121	1199.968506	0.578035
249.472549	1247.424805	2207.851563	1274.542725	2.823528
249.849319	1170.590698	2031.585083	1161.551392	-1.049868
250.226044	1218.047119	1999.947388	1267.763306	6.358379
250.602737	1193.188965	1857.578247	1270.023071	11.564622
250.979401	1301.660645	1792.043335	1213.527466	-17.972326
251.356033	1317.479492	1886.956055	1258.723999	-10.317456
251.732635	1260.983765	1731.027954	1283.582031	4.807690
252.109207	1324.259033	1792.043335	1258.723999	-14.009669
252.485748	1333.298340	1794.303101	1222.566772	-24.019615
252.862244	1242.905151	1649.674194	1204.488159	-9.444424
253.238724	1276.802612	1733.287720	1242.905151	-7.425754
253.615158	1267.763306	1758.145874	1240.645386	-5.529952
253.991577	1285.841919	1758.145874	1245.165039	-8.612437
254.367950	1204.488159	1753.626221	1240.645386	6.584360
254.744308	1394.313599	1884.696289	1358.156372	-7.373267
255.120621	1288.101685	1755.886108	1224.826538	-13.526561
255.496902	1238.385498	1758.145874	1222.566772	-3.043465
255.873154	1211.267578	1674.532227	1181.889893	-6.341448
256.249390	1249.684692	1688.091187	1276.802612	6.185565
256.625549	1218.047119	1640.634888	1204.488159	-3.208555
257.001709	1358.156372	1789.783447	1297.140991	-14.136134
257.377838	1303.920532	1719.728760	1315.219727	2.717405
257.753937	1251.944458	1681.311768	1227.086426	-5.789456
258.129974	1170.590698	1726.508301	1249.684692	14.227647
258.506012	1274.542725	1846.279175	1283.582031	1.581027
258.881989	1319.739380	1873.397095	1231.606079	-15.918373
259.257935	1240.645386	1905.034668	1288.101685	7.142845
259.633911	1220.306885	1941.191895	1265.503418	6.269590
260.009766	1265.503418	2067.742188	1297.140991	3.943660
260.385651	1358.156372	2323.102783	1371.715332	1.405152
260.761475	1161.551392	2295.984863	1260.983765	8.764936
261.137299	1220.306885	2422.535156	1297.140991	6.390975
261.513062	1179.630005	2576.203369	1220.306885	2.912620
261.888763	1331.038452	2628.179443	1407.872559	5.923343
262.264496	1222.566772	2549.085449	1238.385498	1.192499
262.640137	1227.086426	2329.882324	1283.582031	5.122943
263.015808	1168.330933	2334.401855	1195.448853	2.325581
263.391388	1317.479492	2336.661865	1358.156372	3.991129
263.766998	1315.219727	2239.489258	1401.093140	9.290949
264.142517	1312.959839	2196.552490	1324.259033	1.278779
264.518036	1231.606079	1993.167969	1251.944458	2.670614
264.893524	1251.944458	2058.702881	1281.322266	3.641463
265.268951	1288.101685	2149.095947	1256.464111	-3.674539
265.644379	1233.865845	1918.593628	1274.542725	5.940591
266.019745	1193.188965	1945.711548	1247.424805	7.207204
266.395111	1238.385498	1959.270508	1333.298340	13.166156
266.770386	1292.621338	1999.947388	1231.606079	-8.626185
267.145691	1233.865845	2038.364502	1186.409546	-5.898866
267.520966	1236.125732	2101.639648	1324.259033	10.182771
267.896149	1324.259033	2194.292725	1344.597412	2.337654
268.271362	1240.645386	2214.631104	1227.086426	-1.392111
268.646515	1129.913818	2133.277344	1199.968506	6.981985
269.021606	1206.747925	2293.725098	1251.944458	4.158002
269.396729	1209.007813	2203.332031	1254.204346	4.545452
269.771790	1218.047119	2320.843018	1306.180420	7.991805
270.146790	1301.660645	2250.788330	1265.503418	-3.809522
270.521790	1401.093140	2286.945557	1403.352905	0.255095
270.896759	1272.282959	2244.008789	1281.322266	0.930232
271.271667	1202.228271	2363.779785	1346.857300	12.451365
271.646545	1199.968506	2384.118164	1276.802612	6.488547
272.021423	1274.542725	2370.559082	1310.700073	3.298979
272.396271	1179.630005	2521.967529	1288.101685	8.080805
272.771027	1215.787231	2562.644531	1218.047119	0.167790
273.145813	1233.865845	2725.352051	1283.582031	3.333332
273.520538	1292.621338	2772.808594	1344.597412	3.511453
273.895233	1206.747925	2756.989746	1360.416260	9.912539
274.269897	1222.566772	2619.140137	1337.817993	8.252429
274.644501	1258.723999	2668.856445	1346.857300	6.250001
275.019135	1249.684692	2603.321289	1294.881226	3.338897
275.393677	1163.811279	2540.046143	1294.881226	9.523807
275.768250	1195.448853	2476.770996	1326.518799	10.229274
276.142700	1224.826538	2472.251465	1229.346191	0.362319
276.517212	1213.527466	2544.565918	1303.920532	6.791169
276.891632	1163.811279	2576.203369	1321.999146	11.199997
277.266022	1292.621338	2646.258057	1283.582031	-0.667779
277.640381	1256.464111	2709.533203	1303.920532	3.265944
278.014740	1260.983765	2711.793213	1385.274292	8.566978
278.389038	1213.527466	2707.273438	1324.259033	7.413012
278.763336	1193.188965	2675.635986	1335.558105	9.603658
279.137543	1188.669312	2754.729980	1337.817993	9.523812
279.511780	1240.645386	2621.400146	1242.905151	0.163662
279.885925	1265.503418	2707.273438	1290.361572	1.724141
280.260101	1227.086426	2689.194824	1326.518799	6.800616
280.634186	1195.448853	2775.068359	1331.038452	8.583688
281.008301	1285.841919	2747.950439	1367.195679	5.564140
281.382294	1206.747925	2804.446045	1342.337646	8.486567
281.756348	1267.763306	2942.295654	1303.920532	2.159243
282.130280	1181.889893	3043.987793	1344.597412	8.737861
282.504272	1270.023071	3107.262939	1292.621338	1.230012
282.878143	1229.346191	3247.372314	1346.857300	5.823071
283.252014	1238.385498	3301.608154	1342.337646	5.038339
283.625854	1392.053833	3401.040527	1450.809326	2.924633
283.999664	1263.243652	3321.946533	1351.376953	4.281011
284.373444	1265.503418	3362.623535	1358.156372	4.418104
284.747192	1247.424805	3297.088379	1380.754639	6.504962
285.120941	1294.881226	3416.859375	1394.313599	4.685834
285.494629	1161.551392	3326.466309	1254.204346	4.279750
285.868256	1202.228271	3407.820068	1310.700073	4.918036
286.241882	1324.259033	3642.842041	1392.053833	2.923975
286.615448	1256.464111	3688.038574	1342.337646	3.531602
286.988983	1202.228271	3520.811523	1310.700073	4.678366
287.362518	1344.597412	3848.486328	1403.352905	2.346570
287.736023	1179.630005	3929.840332	1321.999146	5.176663
288.109467	1290.361572	3758.093262	1328.778687	1.556778
288.482880	1317.479492	3782.951416	1392.053833	3.024749
288.856262	1355.896606	3778.431885	1410.132446	2.238805
289.229584	1249.684692	3645.102051	1360.416260	4.622642
289.602936	1240.645386	3819.108643	1279.062378	1.489918
289.976227	1224.826538	3617.984131	1432.730713	8.687442
290.349457	1303.920532	3721.936035	1337.817993	1.401871
290.722687	1247.424805	3593.125977	1342.337646	4.046246
291.095886	1247.424805	3916.281250	1444.029785	7.366638
291.469025	1206.747925	3823.628418	1410.132446	7.772022
291.842133	1224.826538	4078.988770	1441.770020	7.600952
292.215240	1294.881226	4049.611084	1437.250366	5.168170
292.588287	1220.306885	4162.602539	1383.014526	5.529955
292.961304	1222.566772	4076.729004	1387.534180	5.779889
293.334320	1276.802612	4015.713623	1421.431519	5.280526
293.707245	1213.527466	3927.580322	1346.857300	4.912573
294.080170	1202.228271	3999.894775	1373.975220	6.138936
294.453064	1215.787231	4060.910156	1448.549561	8.181099
294.825897	1236.125732	4173.901367	1337.817993	3.461540
295.198730	1184.149658	4230.397461	1392.053833	6.824926
295.571533	1215.787231	4390.845215	1337.817993	3.843418
295.944275	1310.700073	4413.443359	1450.809326	4.515657
296.317017	1247.424805	4711.740723	1473.407593	6.523158
296.689697	1222.566772	4720.779785	1376.234985	4.392763
297.062317	1249.684692	4815.692871	1360.416260	3.105196
297.434967	1274.542725	4973.880371	1373.975220	2.687846
297.807526	1238.385498	4994.219238	1489.226440	6.678702
298.180115	1209.007813	5003.258301	1396.573486	4.943419
298.552612	1199.968506	5107.210449	1425.951172	5.783688
298.925110	1267.763306	5080.092285	1416.911865	3.912269
299.297546	1260.983765	5102.690918	1523.123779	6.823530
299.669983	1206.747925	4958.062012	1493.746094	7.650604
300.042358	1274.542725	4811.172852	1464.368286	5.367414
300.414734	1285.841919	4533.214355	1437.250366	4.662491
300.787048	1288.101685	4650.725098	1385.274292	2.889786
301.159332	1236.125732	4393.104980	1387.534180	4.795991
301.531616	1222.566772	4408.923828	1344.597412	3.829786
301.903809	1249.684692	4368.246582	1331.038452	2.608695
302.276031	1193.188965	4345.648438	1331.038452	4.372760
302.648163	1206.747925	4429.262207	1367.195679	4.978962
303.020294	1195.448853	4381.805664	1394.313599	6.241132
303.392395	1213.527466	4390.845215	1279.062378	2.062586
303.764435	1209.007813	4402.144043	1337.817993	4.033971
304.136444	1279.062378	4234.916992	1360.416260	2.752297
304.508453	1236.125732	4239.436523	1398.833252	5.417605
304.880371	1299.400879	4223.617676	1353.636719	1.854713
305.252319	1222.566772	4185.200684	1414.652100	6.483600
305.624207	1281.322266	4176.161621	1410.132446	4.449649
305.996033	1260.983765	4180.681152	1362.676025	3.482973
306.367859	1132.173584	4049.611084	1331.038452	6.816422
306.739655	1213.527466	4210.059082	1276.802612	2.111613
307.111389	1209.007813	4130.964844	1349.117065	4.795048
307.483124	1190.929199	4142.264160	1362.676025	5.819293
307.854828	1301.660645	4243.956055	1385.274292	2.841783
308.226471	1256.464111	4203.279297	1392.053833	4.601229
308.598083	1326.518799	4365.986816	1308.440186	-0.594795
308.969666	1233.865845	4259.774902	1317.479492	2.763257
309.341187	1256.464111	4404.403809	1360.416260	3.302228
309.712738	1236.125732	4585.190430	1340.077759	3.103912
310.084167	1211.267578	4614.567871	1310.700073	2.921649
310.455658	1324.259033	4973.880371	1450.809326	3.467491
310.827057	1238.385498	4919.644531	1455.328979	5.893187
311.198456	1215.787231	4838.291016	1430.470825	5.926387
311.569794	1267.763306	5062.013672	1453.069214	4.883861
311.941132	1233.865845	5041.675293	1389.793945	4.094955
312.312408	1204.488159	4960.321777	1432.730713	6.077015
312.683655	1224.826538	4951.282227	1331.038452	2.850213
313.054840	1279.062378	4761.456543	1416.911865	3.958469
313.426056	1333.298340	4933.203613	1419.171753	2.385435
313.797180	1328.778687	5048.455078	1489.226440	4.313487
314.168304	1260.983765	4689.142090	1407.872559	4.284773
314.539368	1211.267578	4589.709961	1258.723999	1.404683
314.910431	1236.125732	4702.701172	1333.298340	2.803130
315.281433	1274.542725	4790.834473	1351.376953	2.185092
315.652435	1303.920532	5007.777832	1342.337646	1.037219
316.023346	1245.165039	4991.958984	1340.077759	2.533172
316.394287	1238.385498	4964.841309	1288.101685	1.334141
316.765137	1199.968506	4845.070313	1369.455566	4.649721
317.135986	1303.920532	4962.581543	1401.093140	2.655961
317.506775	1224.826538	4686.882324	1317.479492	2.676241
317.877594	1319.739380	4695.921875	1459.848633	4.149931
318.248291	1294.881226	4431.521973	1425.951172	4.178673
